BEGIN IONS
TITLE=id=PRD000211;PRIDE_Exp_Complete_Ac_12575.xml;spectrum=1
400.606	84463.688
592.650	747229.125
626.335	26193.721
607.366	229219.766
231.288	9923.552
870.890	35235.750
758.346	78187.805
642.649	40589.254
645.772	40846.457
205.817	7601.426
307.143	48600.285
362.910	42100.660
667.625	343772.969
756.435	104319.578
666.520	432511.094
834.722	7951.829
704.083	9093.816
583.495	15608.863
339.543	11158.674
816.500	58451.172
516.805	3290.559
674.474	20205.949
384.603	986137.438
321.020	68455.164
684.840	154717.078
800.357	37221.172
389.630	129197.680
610.877	33799.457
758.802	87758.813
813.839	5317.049
542.874	38152.074
795.512	10793.133
273.542	16985.125
954.266	51373.336
686.625	1857.584
470.997	80289.758
623.214	21495.834
433.500	2324.770
215.304	35387.961
398.788	86190.250
774.237	37465.520
769.350	25582.549
440.521	147625.672
746.204	42667.285
313.577	129794.875
445.701	1382045.625
682.944	55049.969
385.669	387760.313
422.850	110582.156
335.813	5820.130
483.542	27218.734
716.854	39719.344
266.811	55096.785
736.787	41322.996
262.073	6863.912
744.848	45050.078
743.638	29848.115
370.984	103894.219
325.414	57007.281
337.507	78176.602
742.717	364737.906
225.607	144488.531
685.302	6896.993
504.655	43507.871
539.542	108427.266
762.750	5560.194
754.344	26283.207
549.865	90999.328
442.674	508473.813
403.147	15430.204
297.073	27034.174
410.914	121546.648
670.812	43587.523
426.436	8528.682
557.581	10911.326
452.716	25275.396
448.483	23457.838
769.804	35357.320
620.095	47739.059
300.425	105962.492
226.906	41060.043
594.610	459985.656
228.630	710678.875
365.455	23619.910
548.576	51953.570
319.846	29944.855
417.632	76745.406
797.244	38912.160
285.082	27256.324
409.110	12484.915
449.680	124649.602
779.680	22267.105
683.949	18434.711
216.732	538767.063
250.685	203847.875
372.611	474249.563
462.062	18829.305
624.725	67412.609
303.625	12217.367
814.648	91092.742
505.699	16254.721
719.461	24353.449
354.831	104287.383
205.480	115701.438
423.390	18349.801
715.630	24410.572
503.625	6505.361
465.425	25019.457
678.678	68546.945
724.641	29537.662
522.640	43852.688
516.346	30552.393
228.830	73098.242
340.694	92193.391
217.911	27493.449
441.834	177787.219
447.699	267793.156
544.254	7140.769
622.962	42614.430
383.468	8486.520
278.073	46742.727
265.491	22065.381
359.000	3499.220
639.550	23937.400
428.657	251416.141
731.333	6462.856
629.912	13555.449
597.686	43203.027
562.778	30972.598
434.704	33978.637
477.725	246850.813
545.051	23104.602
472.921	48992.117
515.393	49053.359
219.743	221511.578
459.723	667615.063
271.867	27560.746
646.878	58305.246
337.005	6053.708
245.711	19865.770
498.746	28034.832
476.778	23886.604
200.558	103428.672
363.452	13352.846
507.709	24833.064
241.321	35630.652
386.217	32817.938
254.766	224419.672
371.877	93860.578
200.023	7404.176
256.866	34634.664
262.575	87529.555
405.038	14768.114
535.750	237149.953
237.968	22557.766
246.633	251598.703
421.896	44512.109
432.867	12914.306
304.459	152960.172
651.494	20163.307
317.356	31654.908
498.335	32213.834
236.478	34889.281
462.537	82895.953
481.765	36675.742
485.275	14438.496
302.539	129301.898
580.526	68206.625
279.554	96175.273
599.813	2069.263
757.222	17552.113
232.399	15429.173
458.641	1441043.625
642.224	8154.287
548.029	4724.294
486.588	52742.387
218.541	137239.094
625.895	16507.916
400.867	42149.219
470.203	10705.780
492.658	12524.486
688.407	59405.816
502.194	34540.086
574.740	83508.180
232.776	45880.906
475.792	296466.094
346.736	65274.379
463.897	50287.859
630.730	9569.176
884.586	21980.564
716.452	15202.902
229.658	94377.133
431.637	69992.438
260.766	43483.961
567.176	29408.119
426.942	66702.273
202.706	261891.203
241.897	19492.461
223.548	566584.875
698.411	27865.627
501.712	7292.157
210.627	522501.375
891.736	82833.969
240.633	368934.469
252.732	26268.008
538.702	163450.422
869.188	1966.532
395.669	7594.341
599.439	71221.633
276.909	31018.660
268.478	88004.719
712.703	52399.336
209.705	49689.895
450.517	83819.492
446.721	1156526.125
264.733	110796.273
366.105	9620.297
524.949	11870.650
528.838	55095.297
257.705	8967.669
596.115	40775.164
331.636	49796.480
310.680	305877.375
370.659	1603138.500
217.653	183605.578
357.822	16509.666
681.375	95252.852
288.662	99709.875
774.592	27052.639
519.864	136969.734
437.314	13294.625
816.793	46425.953
686.068	16927.641
652.918	6122.966
593.600	659439.000
672.416	62834.832
521.650	297274.313
299.642	84392.117
287.514	34251.281
533.769	558958.438
429.882	8100.844
783.606	19513.141
351.509	31744.703
568.581	30206.893
366.830	24533.730
359.858	28715.873
301.550	71828.180
683.566	69164.852
208.689	386885.031
236.845	116102.086
424.964	104528.516
303.378	55779.621
518.621	1741839.375
287.908	31729.074
611.597	3092.964
500.170	45836.516
665.579	15909.978
553.889	10564.795
609.750	243924.719
759.928	62505.449
733.333	8410.110
267.530	95363.367
614.084	71418.984
377.000	2370.986
575.727	32990.152
663.462	15900.781
390.753	816676.563
411.894	10509.602
414.359	82331.883
214.732	43449.762
439.247	31361.242
699.423	5317.480
625.302	26602.965
463.560	64228.246
1006.766	20229.287
204.623	491383.500
241.045	151796.125
355.721	50784.902
536.803	108659.313
612.398	19946.711
676.415	89791.391
238.604	1435889.750
326.556	31757.529
474.486	46786.895
309.950	29658.838
632.263	9310.532
817.526	41578.793
581.908	21239.510
788.548	17748.609
677.633	111358.680
531.714	99355.914
485.834	23471.357
505.416	33013.363
631.132	31633.170
713.146	64049.629
469.834	98504.180
773.394	30768.457
578.788	11188.080
452.032	26161.830
777.473	23267.924
403.711	172432.313
445.899	105588.141
434.139	8789.471
551.825	4169.571
274.015	37063.543
283.659	26708.209
278.794	235779.609
743.270	75654.633
249.220	20342.879
349.401	35283.402
379.528	9555.263
396.967	308631.375
297.509	194196.297
237.602	43741.180
477.155	8316.580
353.230	4902.340
608.649	526386.125
710.034	37743.371
761.271	87210.500
529.804	34108.539
375.839	17227.273
335.649	37273.438
357.480	15500.639
652.161	17873.615
489.902	5817.711
806.037	13809.261
669.351	82446.703
964.672	20147.787
262.787	11640.233
208.094	91914.453
544.901	71367.352
211.236	24668.445
387.599	203799.313
334.484	36272.344
461.008	69669.953
464.509	23785.475
437.087	42838.684
316.189	62849.570
1103.977	12182.554
789.828	75343.398
321.609	42734.117
296.696	1056386.500
310.905	46892.941
221.721	111604.547
503.362	62404.570
508.582	16646.424
430.565	75093.883
654.762	37651.402
768.660	15372.900
425.375	1558.453
353.994	24012.463
591.285	53482.789
613.640	41509.113
376.356	12381.494
279.834	16529.342
675.267	79658.242
427.771	53357.938
302.839	13987.637
368.684	2452952.000
615.018	51822.348
693.555	79466.719
242.585	167990.125
438.929	129137.164
889.811	44500.270
739.292	36663.746
409.539	54849.246
313.750	22905.938
269.393	51742.191
687.078	30596.348
352.797	27388.652
441.049	149101.516
526.332	36500.324
543.963	68432.563
291.580	28360.121
256.014	67709.781
350.499	10956.114
605.673	39937.586
397.865	80774.539
596.680	28415.184
379.327	39893.566
416.595	49783.109
886.548	10018.846
579.687	50056.281
540.375	61996.664
227.609	213542.266
297.858	84029.219
383.077	11451.783
577.539	86179.680
740.532	209005.063
519.644	1098916.750
468.100	16212.517
707.499	7138.455
755.604	23460.268
1342.797	0.000
555.640	40416.762
325.774	10518.792
397.339	45700.770
275.544	12674.092
256.690	117822.805
562.351	22718.943
459.220	318877.656
665.200	122489.000
579.157	8436.148
479.946	3589.938
276.605	237136.141
220.958	8635.953
481.023	131743.719
305.887	22948.400
780.529	34896.965
662.351	13363.986
363.950	8338.156
410.051	12570.419
734.350	25105.238
323.558	36200.066
247.527	13346.013
460.181	89766.875
494.403	19519.459
231.824	9088.719
672.563	10408.202
829.648	30262.113
251.732	54889.625
324.717	48974.117
553.073	96341.031
511.575	9296.868
668.626	225957.063
704.575	6604.327
572.490	72541.117
532.690	1594848.750
204.835	55127.727
628.409	17823.582
271.480	4303.607
384.840	177928.203
878.737	15020.662
466.217	45675.258
270.782	128497.078
1089.904	7861.171
965.624	40636.777
290.202	6956.875
388.828	20815.264
509.454	7569.905
752.455	59901.797
235.405	20441.904
926.614	8725.959
355.427	284426.063
588.040	104425.102
484.962	41866.301
224.812	107008.516
371.642	343221.938
669.642	57394.250
948.887	10380.021
243.195	86497.258
520.764	402593.156
253.956	36206.441
464.963	15146.714
479.576	20925.639
480.619	28500.986
623.719	73353.031
1166.221	60919.754
406.347	10600.483
388.610	418685.719
540.710	13412.510
687.967	23313.926
608.004	90218.148
267.819	10367.616
720.893	25341.461
450.963	37902.199
946.069	18143.314
362.142	2816.163
258.452	107556.094
401.678	285554.063
682.453	41869.008
787.521	19407.744
274.606	137306.406
373.536	228816.047
581.611	83398.602
782.462	9768.854
261.408	34283.340
324.482	128904.461
222.588	2077301.125
214.414	55972.070
691.518	40411.957
490.529	5530.655
201.539	24471.586
384.109	70455.016
728.657	35118.871
738.702	30519.283
280.628	106572.438
312.812	154298.578
218.845	46558.156
705.359	37933.648
574.039	27816.260
444.918	377261.688
476.539	120211.508
294.594	1360130.875
292.834	167016.844
285.844	24870.707
804.290	27238.975
258.840	108118.523
1041.893	6935.585
500.938	2009.513
988.625	1935.934
314.777	71177.039
647.724	15498.357
535.105	105305.680
592.992	193102.516
588.514	9035.150
338.863	44051.500
755.312	81976.508
560.667	78945.258
284.750	223659.531
613.077	57416.500
400.207	74986.891
280.271	83645.352
226.682	604243.438
358.714	104313.914
461.695	307460.875
327.024	104069.711
413.452	25672.787
550.449	23123.348
515.969	123228.844
1110.166	49534.031
274.867	50603.230
913.244	10061.541
666.848	177881.109
277.680	11867.458
444.684	3089906.750
595.591	70889.070
751.728	3306.782
493.486	61266.762
233.274	5964.063
474.928	23336.338
347.071	47335.250
305.559	52317.598
637.212	11595.017
524.018	23609.883
306.697	229242.672
429.068	83709.078
272.746	77675.469
206.750	424295.656
783.380	47361.770
518.878	335222.125
448.063	5395.325
483.057	20585.418
311.754	44030.859
456.269	16401.166
467.137	37006.855
347.619	28982.027
623.884	8442.952
421.520	45462.285
489.595	78759.523
638.785	14809.860
854.610	37298.238
281.458	132132.047
660.737	44157.641
600.820	26671.582
510.222	28566.287
326.178	55648.551
300.818	94580.813
1085.035	17816.576
341.089	50297.828
776.391	42778.566
770.077	14402.608
720.543	78109.969
374.537	54474.125
570.893	39484.586
1031.831	35072.816
673.918	17151.947
336.676	66373.633
1073.937	16839.830
571.391	1898.324
534.648	559745.500
621.978	22500.367
215.664	29759.551
391.730	291492.125
432.386	34956.336
369.691	669332.938
757.534	9085.123
706.528	3851.466
818.745	29826.787
598.413	14469.775
224.589	298831.813
492.361	16390.352
854.915	20542.943
779.290	46041.828
298.580	468230.031
248.816	40395.121
411.540	32191.492
796.516	29961.094
238.977	67720.898
390.930	91879.594
235.778	48070.375
559.298	13818.005
286.348	75512.883
525.424	83859.000
878.320	17234.875
687.830	126684.422
393.932	18870.572
817.808	31410.943
852.785	14827.369
640.478	10178.322
463.019	9074.385
851.226	59376.980
356.763	180938.438
809.741	37033.820
213.000	42532.387
629.266	9274.907
327.599	46664.945
418.561	61865.539
416.876	6673.557
268.825	22654.971
407.819	29380.295
207.745	24821.070
667.907	219593.688
650.758	22900.510
882.125	2148.354
295.689	620395.750
208.898	45398.313
249.715	25108.916
266.345	102398.422
234.717	1254210.875
837.701	12281.644
799.387	44626.074
213.616	309756.938
315.803	85135.500
648.661	4291.039
419.730	25539.986
717.159	28256.473
890.896	48408.852
212.738	206410.313
415.542	21996.322
430.972	25762.313
253.445	73301.422
230.003	17358.469
925.079	3167.589
442.827	38962.895
309.229	72736.891
491.180	15211.511
373.716	32128.984
375.085	128347.563
772.226	24596.092
347.924	37775.121
386.880	265865.500
457.925	109953.266
402.635	66358.594
239.672	261698.047
299.928	3660.283
211.767	49373.484
536.372	25802.801
634.387	8197.502
377.789	44264.531
268.996	12568.411
606.732	1040542.313
680.688	377660.094
493.792	58860.414
616.687	66881.742
478.353	38111.371
341.497	14684.209
921.270	48687.074
381.021	68816.211
663.954	33995.313
203.951	16945.293
429.663	71269.664
497.868	40633.074
341.960	20350.057
290.893	92422.656
418.924	21707.678
344.967	109171.195
269.794	19471.492
402.022	29275.600
685.885	100318.180
814.833	26376.400
615.350	25685.188
990.401	26025.979
821.534	130584.188
725.535	15821.990
681.740	172763.250
491.646	47952.020
828.339	13698.490
230.619	91482.406
443.684	458559.813
318.694	79784.695
216.892	82015.172
395.031	29695.037
696.012	10927.755
508.962	25052.582
539.883	18514.648
537.269	60450.035
648.207	56063.473
850.241	15051.770
703.413	29682.111
286.824	38816.824
591.791	30231.289
811.578	37277.148
633.521	96835.484
762.418	130888.391
282.729	157087.984
367.910	57663.176
556.486	77293.438
259.698	88756.891
354.660	672068.313
500.532	29907.846
257.952	2001.531
547.576	10341.685
203.575	147669.297
327.955	9288.464
322.686	38692.059
707.848	8233.824
460.709	570341.063
617.732	51519.363
537.826	63228.309
718.873	49739.805
263.704	30773.965
593.838	63531.641
506.998	25991.490
607.719	517277.125
220.676	505043.938
412.702	13149.910
606.897	73875.172
741.645	123019.219
550.833	43931.254
502.545	28455.238
549.479	47875.992
229.146	20168.635
END IONS
BEGIN IONS
TITLE=id=PRD000211;PRIDE_Exp_Complete_Ac_12575.xml;spectrum=2
PEPMASS=228.02011108398438
456.514	996.548
200.556	9415.118
238.407	12933.149
249.134	1656.013
210.550	36238.648
246.652	297.287
390.846	726.940
225.657	96016.219
204.489	1206.182
242.276	779.939
231.529	4977.239
212.446	7028.037
235.709	1086.418
596.919	0.000
227.586	69486.656
248.071	1238.163
250.993	3663.664
234.237	299.962
229.319	18194.354
205.288	1003.644
244.286	2494.449
245.839	834.023
214.905	800.977
228.543	105816.469
230.411	16154.489
245.140	553.496
215.703	115.307
239.257	882.699
232.268	3078.716
243.514	3469.723
214.285	3985.125
211.525	3728.923
262.814	2260.506
251.451	1051.115
259.452	2826.629
226.545	410104.250
241.368	2680.802
237.074	94.003
208.528	144071.359
256.312	772.643
224.593	9019.321
209.526	57005.141
260.434	1890.249
254.287	1707.706
END IONS
BEGIN IONS
TITLE=id=PRD000211;PRIDE_Exp_Complete_Ac_12575.xml;spectrum=3
PEPMASS=311.0770263671875
214.492	188.821
252.400	545.409
246.141	3030.500
266.555	2311.702
229.318	703.107
306.850	1999.763
208.416	1291.843
292.621	28247.400
296.490	5472.507
253.251	1571.687
316.077	19570.000
243.768	3745.755
294.488	259207.234
283.647	994.490
236.661	2896.565
361.278	840.293
328.245	2308.170
321.340	1612.065
319.991	1058.919
337.587	1455.346
313.709	20625.682
277.519	5075.218
247.194	368.848
248.574	1069.629
314.365	21422.963
232.720	450.896
226.268	1955.570
332.210	656.377
221.200	106.688
330.374	700.234
316.712	4395.261
203.270	788.618
317.560	3930.443
230.338	1647.608
249.405	2855.940
338.657	675.730
318.308	4386.236
238.453	36131.887
254.523	1104.061
263.468	663.423
245.053	1039.119
212.639	1356.187
220.470	13116.210
235.450	1028.742
299.568	1223.196
222.529	3818.895
284.723	662.508
232.078	2252.800
250.837	2338.570
325.906	534.086
356.926	738.684
322.964	677.585
310.576	18987.805
282.637	14331.115
309.534	15482.405
648.692	0.000
312.448	66548.500
223.476	7643.515
241.520	5369.237
204.446	13505.341
322.207	4701.122
308.490	4823.050
240.633	4399.508
239.477	18535.732
280.369	344.347
202.170	501.439
209.339	1602.260
275.835	394.432
340.123	461.769
224.434	5275.102
318.851	438.137
228.381	2926.524
227.354	1196.068
289.594	547.136
295.502	80348.578
250.137	1389.705
END IONS
BEGIN IONS
TITLE=id=PRD000211;PRIDE_Exp_Complete_Ac_12575.xml;spectrum=4
PEPMASS=276.9076843261719
278.417	2699.932
283.247	145.764
286.188	2079.500
276.567	128176.242
247.824	1096.949
308.671	956.600
294.028	370.203
282.347	9656.250
275.538	20936.852
280.128	998.090
271.537	1644.930
220.467	13089.092
231.670	1045.566
272.734	3337.968
235.600	61.379
204.334	1320.223
240.589	201.021
279.307	873.078
274.601	51918.395
221.471	4522.294
266.404	6106.064
268.260	3282.384
234.378	7477.156
248.549	486.322
259.487	4021.205
250.330	705.124
293.148	1530.057
298.245	1155.642
284.228	2307.987
300.719	307.307
230.460	1547.138
256.703	2756.594
426.460	0.000
255.967	2967.593
258.598	5935.730
218.415	281.356
264.544	1997.185
260.011	314.025
229.265	1085.951
202.420	2007.764
257.488	3750.082
241.520	1594.575
242.446	346.031
277.558	18109.104
END IONS
BEGIN IONS
TITLE=id=PRD000211;PRIDE_Exp_Complete_Ac_12575.xml;spectrum=5
PEPMASS=284.5599060058594
268.492	6917.846
314.484	1363.955
242.649	1113.893
248.703	1904.708
295.224	2070.870
302.078	3300.818
250.449	1166.214
299.395	17208.621
307.457	1395.862
240.265	1095.671
236.510	1626.915
283.497	50095.359
306.686	1811.769
284.625	27478.287
263.406	2221.919
255.460	956.226
200.578	666.603
265.597	5579.371
286.520	3963.413
282.581	178420.203
310.886	823.831
303.405	8863.845
290.419	1623.239
270.352	4590.066
309.639	529.455
221.111	322.499
256.502	162.459
207.648	472.978
208.565	2419.007
270.761	998.528
218.489	600.887
239.521	3088.930
226.549	745.983
242.284	1018.779
253.507	840.094
291.317	1994.374
266.649	18764.127
311.619	1175.515
287.157	2045.820
264.479	13914.473
267.535	3868.306
288.863	1116.812
251.694	1454.355
325.707	753.643
209.707	837.679
244.294	219.300
214.625	2592.301
228.534	2641.742
301.274	3559.133
257.451	1260.289
645.888	312.081
315.191	484.278
285.751	4929.912
304.719	882.756
304.381	1865.686
652.919	0.000
298.463	28063.465
234.767	858.313
292.922	2182.021
224.464	6023.766
227.030	221.909
308.448	511.160
204.643	296.964
318.702	792.105
312.532	661.138
230.053	1759.316
222.517	3072.733
305.851	2841.391
281.339	2687.119
213.647	1161.829
277.747	925.960
246.731	529.472
246.158	2256.717
300.424	9245.264
END IONS
BEGIN IONS
TITLE=id=PRD000211;PRIDE_Exp_Complete_Ac_12575.xml;spectrum=1959
PEPMASS=438.5117492675781
537.715	440.655
465.858	122.897
338.908	855.671
210.439	250.286
466.862	1358.081
392.908	4112.864
248.631	719.913
419.167	4529.978
259.498	1841.472
436.832	12903.271
367.337	2602.054
405.507	507.444
437.577	3003.700
250.284	681.204
292.302	384.099
450.708	321.428
423.326	625.774
442.035	231.186
454.531	271.551
341.587	452.140
393.750	1466.024
314.323	1675.895
420.908	8945.796
377.712	619.474
237.695	1351.811
429.652	3707.333
298.742	4192.047
218.515	430.523
395.458	555.284
333.667	1608.541
438.790	23521.049
411.088	101.054
224.643	470.078
368.467	1263.524
228.450	1540.154
406.861	1170.518
376.714	491.706
381.050	1547.726
270.050	143.591
346.717	599.069
415.248	1456.086
716.489	0.000
444.923	1639.896
354.564	276.008
351.428	1657.622
365.286	1542.069
214.464	690.815
400.927	999.909
349.652	962.123
284.451	973.087
439.780	942.594
408.710	1200.436
END IONS
BEGIN IONS
TITLE=id=PRD000211;PRIDE_Exp_Complete_Ac_12575.xml;spectrum=1594
303.605	12196.696
551.643	100103.695
324.958	55331.160
701.637	17717.215
740.836	181789.063
310.821	145215.750
244.098	48151.816
281.596	16220.884
600.146	57938.766
247.843	8441.813
262.618	32787.914
319.711	6084.207
667.587	328583.906
358.563	8891.283
549.103	82132.102
388.945	6104.323
505.452	35162.633
643.145	20673.895
301.456	55426.895
398.783	166290.266
815.699	101194.352
578.153	17865.133
611.982	8033.972
289.681	52695.211
609.610	316342.469
376.045	16928.455
532.970	150947.578
277.889	19871.469
204.041	71444.523
412.392	4368.746
421.543	9774.667
429.711	120698.016
492.273	7713.675
307.041	81234.695
240.859	76354.367
379.731	74805.813
385.631	254532.578
218.659	149697.953
663.829	31702.162
250.729	158491.625
714.931	21680.012
680.548	392726.063
513.535	16319.062
482.597	37494.051
297.563	383754.125
593.655	526869.000
304.596	440090.469
256.065	17912.531
595.751	204814.047
697.456	14380.971
309.555	41511.055
400.712	28847.615
523.674	42296.480
517.766	41985.848
216.789	621153.688
428.668	391850.000
213.576	164818.016
377.711	25684.785
672.589	5808.104
532.716	1455154.000
221.690	105374.563
233.723	22387.949
223.626	315821.313
625.384	39785.914
316.017	118114.344
698.792	17721.033
750.707	57701.590
512.016	36188.883
223.890	43722.273
475.938	23683.766
426.761	179626.813
202.731	104576.328
